# Created by:        SpecsLab Prodigy, Version 4.34.1-r66167 
#
# XY-Serializer Export Settings:
#   Comment Prefix:           #
#   Output meta data:         yes
#   Energy Axis:              Kinetic Energy
#   Count Rate:               Counts per Second
#   Separate Scan Data:       no
#   Separate Channel Data:    no
#   External Channel Data:    yes
#   Transmission Function:    no
#   ErrorBar:                 no
#   Operation Results:        yes
#   Time Zone Format:         UTC
#
# Region:            O 1S 60deg (145K)
# Acquisition Date:  11/08/18 16:57:10 UTC
# Analysis Method:   XPS
# Analyzer:          Phoibos
# Analyzer Lens:     MediumArea:1.5kV
# Analyzer Slit:     5:7x20\B:open
# Scan Mode:         FixedAnalyzerTransmission
# Curves/Scan:       1
# Values/Curve:      81
# Dwell Time:        0.1
# Excitation Energy: 1486.61
# Kinetic Energy:    950.61
# Pass Energy:       20
# Bias Voltage:      0
# Detector Voltage:  2070
# Eff. Workfunction: 4.397
# Source:            XR50 Dummy
# Comment:           
# OrdinateRange:     [-8.260000, 8.260000]
#
# Cycle: 0
# Number of Scans: 50
#
# Cycle: 0, Curve: 0
#
# ColumnLabels: energy counts/s
#
950.61  3536.4857
950.71  3506.9359
950.81  3576.9244
950.91  3607.7579
951.01  3594.5453
951.11  3533.4013
951.21  3611.4933
951.31  3577.931
951.41  3538.8879
951.51  3540.6602
951.61  3587.0746
951.71  3553.0871
951.81  3579.1812
951.91  3595.6576
952.01  3597.2054
952.11  3625.7929
952.21  3620.2287
952.31  3599.7766
952.41  3593.5067
952.51  3667.2998
952.61  3655.1913
952.71  3665.767
952.81  3700.1662
952.91  3635.5349
953.01  3649.7152
953.11  3687.3039
953.21  3661.9081
953.31  3708.9196
953.41  3722.5669
953.51  3720.3913
953.61  3788.5633
953.71  3801.7253
953.81  3837.0936
953.91  3877.9987
954.01  3941.7692
954.11  3998.3646
954.21  4022.6579
954.31  4109.2168
954.41  4142.3691
954.51  4176.8201
954.61  4195.4787
954.71  4199.0106
954.81  4194.6521
954.91  4182.647
955.01  4165.6628
955.11  4100.9273
955.21  4020.5832
955.31  4001.008
955.41  4011.7374
955.51  4026.6321
955.61  4003.3827
955.71  4000.9634
955.81  4003.9259
955.91  4041.8504
956.01  4018.8125
956.11  3988.9126
956.21  3960.6161
956.31  3978.8475
956.41  3893.4213
956.51  3851.7147
956.61  3810.269
956.71  3812.7901
956.81  3800.4453
956.91  3744.1514
957.01  3755.8657
957.11  3777.7486
957.21  3746.9568
957.31  3723.4228
957.41  3714.9243
957.51  3756.9998
957.61  3762.3185
957.71  3733.913
957.81  3761.6027
957.91  3819.1497
958.01  3788.8997
958.11  3759.7567
958.21  3753.6891
958.31  3721.5673
958.41  3726.1321
958.51  3740.7512
958.61  3800.7395

